! Center RA: 18 57 30.97900,  Dec: +16 53 39.54000 (2000.0)
! Tentative model.
! Flux (Jy) Radius (mas)  Theta (deg)  Major (mas)  Axial ratio   Phi (deg) T \
! Freq (Hz)     SpecIndex
2.24976e-05      55.0088     -155.738 
8.47499e-06      55.1456     -155.802 
8.09523e-06      55.4526     -156.621 
2.92483e-05      56.3867     -159.167 
1.55520e-05      54.8500     -154.973 
7.63593e-06      55.3932     -156.764 
1.92254e-05      53.9184     -161.729 
7.23877e-06      54.6358     -154.346 
7.20472e-06      55.4722     -156.967 
1.29798e-05      54.7010     -154.204 
6.78935e-06      58.9498     -159.179 
6.75428e-06      55.7708     -157.432 
6.48759e-06      54.5659     -154.136 
9.26660e-06      61.3433     -154.246 
3.07692e-05      59.0901     -159.231 
6.31531e-06      55.8521     -157.633 
6.14522e-06      56.2465     -159.113 
6.12081e-06      54.3532     -156.120 
7.45761e-06      53.7760     -161.679 
2.67648e-05      61.4784     -154.307 
1.11811e-05      50.4457     -158.237 
1.08367e-05      57.2539     -154.439 
5.87403e-06      56.4067     -151.455 
5.75225e-06      58.5877     -153.760 
5.74343e-06      57.0212     -160.052 
5.70682e-06      52.8300     -154.668 
5.68396e-06      55.9909     -157.691 
5.59027e-06      55.1586     -159.015 
5.51363e-06      54.4968     -153.925 
5.45880e-06      56.7770     -153.025 
5.47339e-06      56.5788     -160.857 
1.04590e-05      56.2156     -151.175 
5.38828e-06      55.7952     -157.776 
5.34429e-06      55.2072     -155.660 
5.25744e-06      59.2609     -150.642 
1.39353e-05      52.6237     -154.381 
5.16215e-06      56.7205     -160.907 
9.64017e-06      54.3699     -156.473 
5.12629e-06      51.5048     -162.423 
1.47025e-05      59.0371     -159.367 
5.00278e-06      51.1216     -161.047 
4.94989e-06      57.1243     -159.769 
8.00091e-06      59.4652     -150.587 
1.68420e-05      49.3879     -158.496 
4.82499e-06      54.8248     -159.049 
4.82471e-06      58.6542     -153.628 
4.79096e-06      56.3120     -163.170 
4.74294e-06      50.7799     -158.205 
4.71840e-06      56.0842     -151.101 
9.05723e-06      56.5298     -161.001 
5.49096e-06      55.9895     -158.518 
4.66743e-06      55.2580     -155.171 
9.02854e-06      58.4603     -150.538 
8.80757e-06      61.5489     -154.493 
1.27442e-05      51.6028     -162.632 
1.28574e-05      56.4556     -163.214 
9.67119e-06      51.3123     -160.943 
1.77714e-05      57.1894     -154.574 
4.41364e-06      57.7289     -152.167 
6.39963e-06      54.4283     -153.714 
4.32763e-06      55.9052     -158.319 
4.28115e-06      57.1093     -157.338 
5.50288e-06      53.8666     -155.715 
9.58671e-06      55.8217     -150.952 
5.94470e-06      48.4158     -161.636 
5.89033e-06      59.5959     -150.657 
4.10475e-06      57.0041     -161.005 
4.09364e-06      55.4679     -155.441 
4.07688e-06      56.3002     -158.970 
3.99694e-06      58.1253     -150.521 
4.83435e-06      58.7886     -153.693 
1.23374e-05      61.6843     -154.553 
2.21758e-06      54.9649     -159.105 
3.98037e-06      52.4884     -154.310 
5.39118e-07      54.0181     -156.136 
6.11848e-07      56.0068     -161.141 
1.13738e-06      57.2477     -157.396 
1.04895e-06      54.5629     -153.784 
3.64840e-06      55.8164     -161.237 
2.70754e-06      53.9420     -155.926 
5.02177e-06      55.4572     -155.095 
1.42310e-06      51.1705     -160.888 
3.80728e-07      54.0350     -156.491 
1.43216e-06      56.4124     -163.360 
3.74480e-07      50.9192     -158.268 
1.40453e-06      54.1131     -156.700 
5.19191e-07      57.9248     -152.436 
1.91593e-06      56.1488     -161.190 
1.04018e-06      58.1992     -150.392 
2.58471e-05      56.5561     -163.404 
3.03357e-06      57.3862     -157.453 
6.10382e-06      55.1051     -159.160 
6.02905e-06      55.5205     -154.955 
7.08451e-06      57.9947     -150.448 
9.01115e-06      61.7529     -152.249 
3.60970e-07      57.4445     -160.205 
4.15489e-06      56.1291     -158.574 
7.26988e-08      57.1459     -161.054 
1.48728e-06      57.2878     -161.103 
5.36466e-06      48.2735     -161.580 
1.68457e-06      57.8615     -152.236 
8.06560e-07      53.4440     -161.731 
2.45400e-06      54.0539     -156.846 
8.10233e-07      51.1142     -158.174 
8.90200e-06      55.6907     -150.877 
2.09991e-07      57.3544     -160.013 
4.09510e-06      51.7909     -162.523 
8.90613e-06      51.7460     -162.682 
4.34087e-06      52.2838     -154.019 
1.35779e-06      57.4298     -161.151 
1.36914e-07      57.2651     -159.821 
1.45245e-06      57.3249     -154.639 
8.65450e-07      61.6832     -152.373 
4.65024e-06      54.0034     -155.781 
1.14558e-06      57.4059     -159.873 
6.70651e-08      56.0446     -158.375 
8.55120e-07      57.5248     -157.511 
7.25244e-07      57.3815     -161.293 
1.08793e-06      58.5868     -153.432 
5.16440e-07      57.5823     -157.373 
1.95963e-07      61.6136     -154.368 
3.89965e-06      48.5048     -155.968 
1.30216e-07      57.5717     -161.200 
2.27082e-06      53.9951     -156.993 
1.08810e-06      57.5236     -161.341 
2.29502e-06      60.3392     -156.299 
5.00951e-07      57.1251     -154.710 
1.27986e-07      58.0689     -150.319 
2.87757e-06      57.8643     -150.375 
2.36945e-06      60.2275     -161.306 
8.15875e-07      57.7208     -157.430 
3.96609e-06      55.6744     -161.187 
1.94780e-06      57.6657     -161.389 
1.77841e-06      56.1841     -158.432 
2.44005e-07      52.8273     -161.681 
1.69980e-06      57.9316     -152.105 
4.34288e-06      59.6696     -150.532 
4.43745e-06      58.7210     -153.497 
1.27238e-06      57.6634     -157.568 
1.79340e-07      56.2688     -158.630 
3.49093e-06      52.1490     -153.947 
3.46714e-06      57.9386     -150.246 
5.60505e-06      60.3696     -161.352 
1.60759e-06      47.4671     -161.637 
1.18304e-07      51.2534     -158.236 
1.24155e-06      57.4954     -160.064 
1.61733e-06      57.8021     -157.625 
5.37522e-06      60.2625     -156.111 
1.54266e-06      57.8079     -161.436 
7.48976e-06      48.5660     -155.806 
1.15822e-07      52.6849     -161.630 
6.68740e-06      54.1402     -155.846 
1.19630e-05      55.5597     -150.802 
1.48777e-06      55.6565     -155.020 
1.49678e-06      53.8571     -156.930 
2.27366e-07      51.4541     -160.998 
3.62251e-06      48.4633     -161.467 
5.64912e-08      52.5426     -161.578 
3.00584e-06      59.8002     -150.603 
2.39751e-06      59.1775     -159.418 
1.96090e-06      57.9408     -157.681 
1.12076e-07      51.6895     -161.263 
4.71581e-06      57.8084     -150.172 
1.58242e-06      51.8315     -161.316 
1.66342e-06      57.9501     -161.483 
3.92404e-06      57.8695     -151.904 
1.32180e-06      56.3236     -158.488 
7.09754e-06      52.0805     -153.726 
6.39594e-06      60.5118     -161.397 
2.69252e-06      47.1352     -161.695 
4.69909e-07      57.5467     -159.924 
5.40265e-06      55.5842     -154.815 
4.21654e-07      53.9367     -157.140 
2.39526e-06      55.0519     -159.306 
2.13981e-06      58.0796     -157.737 
3.72257e-06      53.7985     -157.077 
5.64697e-07      58.0924     -161.530 
2.17820e-06      52.2106     -161.631 
7.74346e-07      57.6365     -160.115 
3.15403e-06      55.5325     -161.137 
1.09407e-06      58.1874     -161.717 
1.02563e-06      49.1934     -158.595 
8.66552e-07      56.4085     -158.685 
7.38059e-07      59.1249     -159.554 
4.03446e-06      57.6784     -150.098 
1.49342e-06      64.4176     -150.925 
4.99315e-08      56.2120     -157.949 
1.96522e-07      62.5077     -155.215 
5.38048e-06      51.8892     -162.731 
3.35820e-07      56.2685     -157.807 
2.17062e-06      58.2185     -157.793 
2.65832e-06      54.2771     -155.911 
1.97969e-06      62.7177     -155.455 
4.17589e-06      58.3299     -161.763 
5.47701e-07      51.9736     -161.369 
2.33560e-06      59.2655     -159.605 
6.73882e-06      60.6539     -161.442 
7.07765e-07      50.1346     -153.584 
2.86090e-06      47.5234     -158.777 
8.77374e-07      56.5483     -158.741 
1.28975e-06      58.6825     -156.708 
1.95739e-06      64.4762     -151.106 
3.88473e-06      49.7992     -153.585 
6.27484e-07      56.1866     -157.608 
1.18947e-06      60.3997     -156.169 
3.28467e-06      48.4293     -155.733 
2.24447e-06      64.0048     -149.947 
8.60651e-07      57.7268     -160.306 
1.79670e-07      58.3010     -157.985 
2.66869e-07      58.3574     -157.849 
2.85914e-06      57.5484     -150.023 
3.06793e-07      58.4855     -156.785 
1.90900e-06      58.4401     -158.040 
2.14799e-06      66.1793     -154.536 
2.22322e-06      56.6999     -163.447 
5.87436e-07      46.9928     -161.638 
6.29083e-07      56.0480     -157.550 
5.42483e-07      62.8542     -155.511 
4.58978e-07      52.1158     -161.422 
2.06224e-07      55.1923     -159.361 
3.70301e-07      58.5448     -156.650 
9.46916e-07      49.6649     -153.508 
4.11606e-07      59.4061     -159.655 
3.27621e-07      55.4485     -154.749 
2.45997e-07      53.7919     -155.504 
4.09801e-07      58.4724     -161.809 
