! Center RA: 18 57 30.97900,  Dec: +16 53 39.54000 (2000.0)
! Tentative model.
! Flux (Jy) Radius (mas)  Theta (deg)  Major (mas)  Axial ratio   Phi (deg) T \
! Freq (Hz)     SpecIndex
8.04325e-06      53.9801     -155.069 
3.71723e-05      52.1453     -158.450 
7.87074e-06      54.1079     -161.628 
1.48442e-05      55.7910     -159.921 
1.94689e-05      54.2503     -161.678 
7.40098e-06      53.9077     -154.858 
1.39546e-05      58.5524     -158.559 
7.17287e-06      54.9800     -156.579 
7.06647e-06      54.2939     -157.470 
1.11822e-05      58.2600     -154.421 
7.20348e-06      55.5987     -160.013 
6.81136e-06      53.7719     -154.790 
6.68488e-06      51.9339     -162.573 
6.66716e-06      56.5991     -155.130 
1.35694e-05      58.3249     -154.288 
6.42338e-06      56.1402     -159.399 
6.32682e-06      53.5006     -154.653 
6.31190e-06      56.2427     -161.384 
1.15928e-05      54.1554     -157.409 
1.18026e-05      52.0325     -162.780 
1.18187e-05      54.8424     -156.517 
6.12745e-06      58.3285     -158.314 
1.18508e-05      51.7600     -154.842 
2.39837e-05      55.7397     -160.066 
6.01028e-06      54.3459     -161.878 
6.00324e-06      61.0782     -154.439 
1.63846e-05      56.7352     -155.193 
5.90244e-06      55.3415     -151.209 
7.74122e-06      58.1898     -154.224 
5.78856e-06      52.3698     -158.723 
5.70820e-06      54.3927     -161.728 
5.56988e-06      59.0831     -157.664 
2.86439e-05      55.2101     -151.134 
5.56574e-06      58.5833     -158.885 
5.45861e-06      53.4297     -154.439 
1.04097e-05      56.4796     -161.626 
8.93830e-06      61.2783     -154.373 
1.07524e-05      52.1758     -162.829 
5.24891e-06      51.6243     -154.772 
9.66671e-06      58.4434     -158.832 
1.35947e-05      54.7049     -156.454 
5.07827e-06      61.2135     -154.499 
4.95682e-06      56.3335     -159.309 
4.88102e-06      53.1592     -154.299 
1.36403e-05      62.5448     -153.555 
4.83474e-06      59.2218     -157.719 
1.00414e-05      51.5605     -154.922 
4.76004e-06      55.5476     -160.159 
8.92756e-06      54.6819     -162.323 
4.67480e-06      55.0329     -153.851 
1.50660e-05      52.2848     -158.510 
4.60050e-06      56.4325     -161.770 
4.57250e-06      61.3490     -154.560 
8.84053e-06      53.5421     -160.918 
8.52583e-06      61.7607     -151.938 
4.47019e-06      53.9594     -157.495 
4.33753e-06      59.3607     -157.774 
4.33673e-06      54.7650     -156.310 
4.28585e-06      54.8983     -153.782 
4.16119e-06      56.5750     -161.818 
1.42621e-05      51.4247     -154.851 
6.78196e-06      56.1064     -159.058 
4.12201e-06      52.7541     -154.087 
4.11421e-06      61.4845     -154.620 
4.06332e-06      52.1317     -162.986 
4.04816e-06      57.7714     -158.094 
4.00678e-06      52.7362     -157.297 
9.87640e-06      56.7175     -161.865 
3.70103e-06      51.0723     -161.738 
1.54189e-06      54.5674     -156.391 
3.04283e-06      54.7637     -153.712 
3.09594e-07      60.2625     -156.111 
6.47135e-06      55.8808     -160.118 
3.42906e-06      54.8779     -162.717 
6.05235e-06      60.1254     -156.054 
6.87018e-07      59.4995     -157.829 
6.42666e-06      56.2465     -159.113 
4.36106e-06      56.8714     -155.257 
2.06862e-06      59.6385     -157.883 
8.93015e-06      52.2751     -163.034 
1.27534e-05      55.0788     -151.058 
1.17666e-06      52.3497     -153.872 
7.47311e-08      54.7355     -158.001 
2.90461e-07      54.5142     -157.736 
6.18771e-06      54.6293     -153.643 
2.28995e-06      61.6284     -151.873 
4.62627e-06      52.5400     -157.385 
2.19833e-07      57.3542     -157.926 
1.95656e-06      54.5875     -155.192 
1.76441e-06      57.2152     -157.870 
2.29622e-06      59.7775     -157.937 
2.14356e-07      52.2150     -153.799 
4.97535e-07      55.0212     -162.763 
6.11887e-06      67.4443     -152.919 
7.73351e-07      52.1471     -153.579 
6.99762e-07      54.9769     -162.913 
1.00413e-05      61.4636     -160.957 
2.87898e-06      54.7828     -156.660 
1.96070e-06      52.0128     -153.505 
3.53589e-06      55.1203     -162.959 
4.29232e-06      61.6992     -151.750 
1.14203e-06      57.0763     -157.813 
2.68111e-06      59.9165     -157.991 
1.40836e-06      53.6351     -161.122 
4.67867e-06      54.7237     -155.258 
3.31532e-07      64.1559     -153.073 
6.64456e-08      58.4759     -159.160 
9.33144e-06      54.9206     -156.722 
5.02870e-06      56.8601     -161.912 
4.52161e-07      58.4227     -159.297 
1.06248e-05      57.1331     -157.674 
1.29321e-06      51.8786     -153.431 
2.41029e-06      64.2896     -153.133 
2.17502e-06      51.2148     -161.791 
2.89426e-06      49.2603     -165.776 
5.92637e-06      54.4949     -153.573 
8.39528e-06      62.4781     -153.678 
3.64558e-06      51.8119     -153.209 
3.45527e-06      60.0556     -158.045 
6.08469e-07      58.2824     -159.245 
2.50981e-06      56.7983     -155.056 
2.11509e-06      60.2019     -156.242 
1.05721e-05      51.2890     -154.780 
9.63062e-07      55.2201     -163.153 
4.74585e-07      52.5979     -157.234 
1.32718e-06      53.4003     -160.866 
1.38832e-05      61.6054     -161.003 
1.08730e-05      66.2588     -154.998 
6.18689e-06      53.2467     -151.626 
4.56221e-06      61.5671     -151.684 
2.35246e-06      55.3637     -163.198 
1.05315e-05      49.1149     -165.733 
2.46724e-06      67.5779     -152.977 
2.44252e-06      58.0891     -159.331 
3.18531e-06      52.4596     -157.171 
5.00929e-06      52.0904     -158.603 
5.91148e-06      56.8137     -162.056 
4.48643e-06      51.6780     -153.134 
6.83069e-07      59.9997     -158.178 
1.23369e-06      60.1948     -158.098 
3.03300e-06      58.6624     -161.253 
7.05922e-06      57.5448     -148.282 
2.55747e-06      55.9663     -159.003 
6.37171e-06      57.8695     -151.904 
7.29906e-07      61.2082     -154.185 
3.90288e-06      60.1390     -158.231 
3.43163e-06      54.9228     -155.181 
6.46069e-07      53.3081     -160.661 
4.87459e-07      55.6008     -158.693 
3.23237e-06      54.9476     -150.983 
8.11323e-06      55.6884     -148.733 
6.31026e-07      54.7236     -156.805 
5.02878e-06      67.5099     -153.091 
4.17680e-06      55.7405     -158.749 
3.11831e-06      55.4642     -163.391 
2.90759e-06      51.7460     -152.986 
4.68747e-06      54.3607     -153.502 
7.16574e-07      53.0753     -160.400 
2.48385e-06      50.2508     -158.332 
2.54963e-07      60.3340     -158.151 
3.41324e-06      58.8045     -161.300 
1.85763e-06      53.1756     -151.769 
2.48747e-07      58.2294     -159.383 
2.65914e-06      52.9846     -160.193 
5.88971e-07      51.5443     -153.058 
1.76948e-06      57.8958     -159.417 
3.84147e-06      60.2783     -158.284 
5.23404e-06      57.4965     -148.076 
4.82038e-06      51.6124     -152.910 
2.01877e-06      61.6384     -151.561 
1.21301e-06      52.3214     -157.107 
3.56678e-06      56.9564     -162.102 
2.43171e-06      54.5047     -149.267 
1.40903e-07      55.8263     -158.948 
1.06835e-06      56.9343     -155.120 
1.98340e-06      50.4028     -153.355 
1.73157e-06      55.6502     -159.868 
1.60697e-06      58.2048     -151.913 
2.43012e-06      55.6080     -163.435 
6.25367e-07      51.1533     -154.709 
1.27385e-06      54.4282     -149.403 
1.83965e-06      62.3437     -153.617 
2.87971e-06      61.7473     -161.048 
1.34844e-06      51.2252     -154.932 
3.53341e-07      60.4732     -158.204 
9.95837e-07      52.2419     -156.891 
2.03710e-06      55.6384     -148.521 
6.05025e-07      54.8600     -155.323 
4.30863e-07      54.8615     -156.866 
4.39389e-08      61.1388     -153.998 
1.54787e-06      66.3948     -155.053 
6.44239e-07      58.0363     -159.469 
1.11193e-06      60.4177     -158.336 
3.01104e-07      62.1171     -151.328 
7.25491e-07      50.2688     -153.278 
3.82219e-07      58.9466     -161.346 
1.69365e-07      62.4522     -151.339 
8.46944e-08      51.3573     -161.843 
4.20556e-08      62.4105     -153.493 
